# E (eV)   ldos(E)   pdos(E)
  -5.833  0.000E+00  0.000E+00
  -5.813  0.132E-01  0.132E-01
  -5.793  0.289E-01  0.289E-01
  -5.773  0.361E-01  0.361E-01
  -5.753  0.447E-01  0.447E-01
  -5.733  0.522E-01  0.522E-01
  -5.713  0.541E-01  0.541E-01
  -5.693  0.580E-01  0.580E-01
  -5.673  0.625E-01  0.625E-01
  -5.653  0.671E-01  0.671E-01
  -5.633  0.717E-01  0.717E-01
  -5.613  0.735E-01  0.735E-01
  -5.593  0.759E-01  0.759E-01
  -5.573  0.781E-01  0.781E-01
  -5.553  0.805E-01  0.805E-01
  -5.533  0.834E-01  0.834E-01
  -5.513  0.863E-01  0.863E-01
  -5.493  0.893E-01  0.893E-01
  -5.473  0.916E-01  0.916E-01
  -5.453  0.926E-01  0.926E-01
  -5.433  0.943E-01  0.943E-01
  -5.413  0.961E-01  0.961E-01
  -5.393  0.979E-01  0.979E-01
  -5.373  0.997E-01  0.997E-01
  -5.353  0.102E+00  0.102E+00
  -5.333  0.104E+00  0.104E+00
  -5.313  0.106E+00  0.106E+00
  -5.293  0.108E+00  0.108E+00
  -5.273  0.109E+00  0.109E+00
  -5.253  0.110E+00  0.110E+00
  -5.233  0.111E+00  0.111E+00
  -5.213  0.113E+00  0.113E+00
  -5.193  0.114E+00  0.114E+00
  -5.173  0.116E+00  0.116E+00
  -5.153  0.117E+00  0.117E+00
  -5.133  0.119E+00  0.119E+00
  -5.113  0.120E+00  0.120E+00
  -5.093  0.122E+00  0.122E+00
  -5.073  0.124E+00  0.124E+00
  -5.053  0.125E+00  0.125E+00
  -5.033  0.126E+00  0.126E+00
  -5.013  0.127E+00  0.127E+00
  -4.993  0.128E+00  0.128E+00
  -4.973  0.129E+00  0.129E+00
  -4.953  0.131E+00  0.131E+00
  -4.933  0.132E+00  0.132E+00
  -4.913  0.133E+00  0.133E+00
  -4.893  0.135E+00  0.135E+00
  -4.873  0.136E+00  0.136E+00
  -4.853  0.137E+00  0.137E+00
  -4.833  0.139E+00  0.139E+00
  -4.813  0.140E+00  0.140E+00
  -4.793  0.142E+00  0.142E+00
  -4.773  0.143E+00  0.143E+00
  -4.753  0.144E+00  0.144E+00
  -4.733  0.145E+00  0.145E+00
  -4.713  0.146E+00  0.146E+00
  -4.693  0.147E+00  0.147E+00
  -4.673  0.149E+00  0.149E+00
  -4.653  0.150E+00  0.150E+00
  -4.633  0.151E+00  0.151E+00
  -4.613  0.152E+00  0.152E+00
  -4.593  0.154E+00  0.154E+00
  -4.573  0.155E+00  0.155E+00
  -4.553  0.157E+00  0.157E+00
  -4.533  0.158E+00  0.158E+00
  -4.513  0.160E+00  0.160E+00
  -4.493  0.161E+00  0.161E+00
  -4.473  0.162E+00  0.162E+00
  -4.453  0.163E+00  0.163E+00
  -4.433  0.165E+00  0.165E+00
  -4.413  0.166E+00  0.166E+00
  -4.393  0.167E+00  0.167E+00
  -4.373  0.169E+00  0.169E+00
  -4.353  0.170E+00  0.170E+00
  -4.333  0.172E+00  0.172E+00
  -4.313  0.173E+00  0.173E+00
  -4.293  0.175E+00  0.175E+00
  -4.273  0.176E+00  0.176E+00
  -4.253  0.178E+00  0.178E+00
  -4.233  0.180E+00  0.180E+00
  -4.213  0.181E+00  0.181E+00
  -4.193  0.183E+00  0.183E+00
  -4.173  0.185E+00  0.185E+00
  -4.153  0.186E+00  0.186E+00
  -4.133  0.188E+00  0.188E+00
  -4.113  0.190E+00  0.190E+00
  -4.093  0.191E+00  0.191E+00
  -4.073  0.193E+00  0.193E+00
  -4.053  0.195E+00  0.195E+00
  -4.033  0.197E+00  0.197E+00
  -4.013  0.199E+00  0.199E+00
  -3.993  0.201E+00  0.201E+00
  -3.973  0.204E+00  0.204E+00
  -3.953  0.206E+00  0.206E+00
  -3.933  0.208E+00  0.208E+00
  -3.913  0.211E+00  0.211E+00
  -3.893  0.213E+00  0.213E+00
  -3.873  0.216E+00  0.216E+00
  -3.853  0.219E+00  0.219E+00
  -3.833  0.222E+00  0.222E+00
  -3.813  0.225E+00  0.225E+00
  -3.793  0.228E+00  0.228E+00
  -3.773  0.231E+00  0.231E+00
  -3.753  0.235E+00  0.235E+00
  -3.733  0.239E+00  0.239E+00
  -3.713  0.243E+00  0.243E+00
  -3.693  0.248E+00  0.248E+00
  -3.673  0.253E+00  0.253E+00
  -3.653  0.259E+00  0.259E+00
  -3.633  0.266E+00  0.266E+00
  -3.613  0.274E+00  0.274E+00
  -3.593  0.283E+00  0.283E+00
  -3.573  0.303E+00  0.303E+00
  -3.553  0.345E+00  0.345E+00
  -3.533  0.316E+00  0.316E+00
  -3.513  0.316E+00  0.316E+00
  -3.493  0.316E+00  0.316E+00
  -3.473  0.307E+00  0.307E+00
  -3.453  0.302E+00  0.302E+00
  -3.433  0.308E+00  0.308E+00
  -3.413  0.310E+00  0.310E+00
  -3.393  0.305E+00  0.305E+00
  -3.373  0.297E+00  0.297E+00
  -3.353  0.293E+00  0.293E+00
  -3.333  0.290E+00  0.290E+00
  -3.313  0.287E+00  0.287E+00
  -3.293  0.285E+00  0.285E+00
  -3.273  0.283E+00  0.283E+00
  -3.253  0.280E+00  0.280E+00
  -3.233  0.276E+00  0.276E+00
  -3.213  0.271E+00  0.271E+00
  -3.193  0.268E+00  0.268E+00
  -3.173  0.266E+00  0.266E+00
  -3.153  0.264E+00  0.264E+00
  -3.133  0.262E+00  0.262E+00
  -3.113  0.261E+00  0.261E+00
  -3.093  0.259E+00  0.259E+00
  -3.073  0.256E+00  0.256E+00
  -3.053  0.252E+00  0.252E+00
  -3.033  0.247E+00  0.247E+00
  -3.013  0.244E+00  0.244E+00
  -2.993  0.241E+00  0.241E+00
  -2.973  0.239E+00  0.239E+00
  -2.953  0.237E+00  0.237E+00
  -2.933  0.234E+00  0.234E+00
  -2.913  0.232E+00  0.232E+00
  -2.893  0.229E+00  0.229E+00
  -2.873  0.227E+00  0.227E+00
  -2.853  0.224E+00  0.224E+00
  -2.833  0.222E+00  0.222E+00
  -2.813  0.218E+00  0.218E+00
  -2.793  0.214E+00  0.214E+00
  -2.773  0.212E+00  0.212E+00
  -2.753  0.209E+00  0.209E+00
  -2.733  0.207E+00  0.207E+00
  -2.713  0.205E+00  0.205E+00
  -2.693  0.202E+00  0.202E+00
  -2.673  0.200E+00  0.200E+00
  -2.653  0.198E+00  0.198E+00
  -2.633  0.195E+00  0.195E+00
  -2.613  0.192E+00  0.192E+00
  -2.593  0.189E+00  0.189E+00
  -2.573  0.186E+00  0.186E+00
  -2.553  0.183E+00  0.183E+00
  -2.533  0.180E+00  0.180E+00
  -2.513  0.177E+00  0.177E+00
  -2.493  0.175E+00  0.175E+00
  -2.473  0.172E+00  0.172E+00
  -2.453  0.170E+00  0.170E+00
  -2.433  0.167E+00  0.167E+00
  -2.413  0.164E+00  0.164E+00
  -2.393  0.162E+00  0.162E+00
  -2.373  0.159E+00  0.159E+00
  -2.353  0.157E+00  0.157E+00
  -2.333  0.154E+00  0.154E+00
  -2.313  0.151E+00  0.151E+00
  -2.293  0.149E+00  0.149E+00
  -2.273  0.146E+00  0.146E+00
  -2.253  0.143E+00  0.143E+00
  -2.233  0.140E+00  0.140E+00
  -2.213  0.137E+00  0.137E+00
  -2.193  0.134E+00  0.134E+00
  -2.173  0.132E+00  0.132E+00
  -2.153  0.128E+00  0.128E+00
  -2.133  0.127E+00  0.127E+00
  -2.113  0.129E+00  0.129E+00
  -2.093  0.124E+00  0.124E+00
  -2.073  0.121E+00  0.121E+00
  -2.053  0.118E+00  0.118E+00
  -2.033  0.116E+00  0.116E+00
  -2.013  0.114E+00  0.114E+00
  -1.993  0.111E+00  0.111E+00
  -1.973  0.120E+00  0.120E+00
  -1.953  0.106E+00  0.106E+00
  -1.933  0.923E-01  0.923E-01
  -1.913  0.820E-01  0.820E-01
  -1.893  0.728E-01  0.728E-01
  -1.873  0.642E-01  0.642E-01
  -1.853  0.560E-01  0.560E-01
  -1.833  0.483E-01  0.483E-01
  -1.813  0.409E-01  0.409E-01
  -1.793  0.338E-01  0.338E-01
  -1.773  0.269E-01  0.269E-01
  -1.753  0.208E-01  0.208E-01
  -1.733  0.161E-01  0.161E-01
  -1.713  0.122E-01  0.122E-01
  -1.693  0.921E-02  0.921E-02
  -1.673  0.707E-02  0.707E-02
  -1.653  0.593E-02  0.593E-02
  -1.633  0.585E-02  0.585E-02
  -1.613  0.720E-02  0.720E-02
  -1.593  0.102E-01  0.102E-01
  -1.573  0.138E-01  0.138E-01
  -1.553  0.181E-01  0.181E-01
  -1.533  0.229E-01  0.229E-01
  -1.513  0.282E-01  0.282E-01
  -1.493  0.339E-01  0.339E-01
  -1.473  0.401E-01  0.401E-01
  -1.453  0.466E-01  0.466E-01
  -1.433  0.536E-01  0.536E-01
  -1.413  0.604E-01  0.604E-01
  -1.393  0.667E-01  0.667E-01
  -1.373  0.720E-01  0.720E-01
  -1.353  0.765E-01  0.765E-01
  -1.333  0.810E-01  0.810E-01
  -1.313  0.888E-01  0.888E-01
  -1.293  0.921E-01  0.921E-01
  -1.273  0.977E-01  0.977E-01
  -1.253  0.102E+00  0.102E+00
  -1.233  0.103E+00  0.103E+00
  -1.213  0.105E+00  0.105E+00
  -1.193  0.108E+00  0.108E+00
  -1.173  0.112E+00  0.112E+00
  -1.153  0.116E+00  0.116E+00
  -1.133  0.119E+00  0.119E+00
  -1.113  0.122E+00  0.122E+00
  -1.093  0.125E+00  0.125E+00
  -1.073  0.128E+00  0.128E+00
  -1.053  0.131E+00  0.131E+00
  -1.033  0.134E+00  0.134E+00
  -1.013  0.140E+00  0.140E+00
  -0.993  0.144E+00  0.144E+00
  -0.973  0.147E+00  0.147E+00
  -0.953  0.150E+00  0.150E+00
  -0.933  0.154E+00  0.154E+00
  -0.913  0.158E+00  0.158E+00
  -0.893  0.162E+00  0.162E+00
  -0.873  0.167E+00  0.167E+00
  -0.853  0.177E+00  0.177E+00
  -0.833  0.205E+00  0.205E+00
  -0.813  0.223E+00  0.223E+00
  -0.793  0.243E+00  0.243E+00
  -0.773  0.274E+00  0.274E+00
  -0.753  0.303E+00  0.303E+00
  -0.733  0.341E+00  0.341E+00
  -0.713  0.481E+00  0.481E+00
  -0.693  0.362E+00  0.362E+00
  -0.673  0.311E+00  0.311E+00
  -0.653  0.281E+00  0.281E+00
  -0.633  0.261E+00  0.261E+00
  -0.613  0.246E+00  0.246E+00
  -0.593  0.233E+00  0.233E+00
  -0.573  0.222E+00  0.222E+00
  -0.553  0.214E+00  0.214E+00
  -0.533  0.207E+00  0.207E+00
  -0.513  0.201E+00  0.201E+00
  -0.493  0.195E+00  0.195E+00
  -0.473  0.189E+00  0.189E+00
  -0.453  0.184E+00  0.184E+00
  -0.433  0.179E+00  0.179E+00
  -0.413  0.174E+00  0.174E+00
  -0.393  0.170E+00  0.170E+00
  -0.373  0.165E+00  0.165E+00
  -0.353  0.162E+00  0.162E+00
  -0.333  0.158E+00  0.158E+00
  -0.313  0.154E+00  0.154E+00
  -0.293  0.151E+00  0.151E+00
  -0.273  0.148E+00  0.148E+00
  -0.253  0.146E+00  0.146E+00
  -0.233  0.143E+00  0.143E+00
  -0.213  0.141E+00  0.141E+00
  -0.193  0.139E+00  0.139E+00
  -0.173  0.137E+00  0.137E+00
  -0.153  0.134E+00  0.134E+00
  -0.133  0.132E+00  0.132E+00
  -0.113  0.130E+00  0.130E+00
  -0.093  0.128E+00  0.128E+00
  -0.073  0.126E+00  0.126E+00
  -0.053  0.124E+00  0.124E+00
  -0.033  0.122E+00  0.122E+00
  -0.013  0.120E+00  0.120E+00
   0.007  0.118E+00  0.118E+00
   0.027  0.115E+00  0.115E+00
   0.047  0.114E+00  0.114E+00
   0.067  0.111E+00  0.111E+00
   0.087  0.110E+00  0.110E+00
   0.107  0.108E+00  0.108E+00
   0.127  0.107E+00  0.107E+00
   0.147  0.106E+00  0.106E+00
   0.167  0.104E+00  0.104E+00
   0.187  0.103E+00  0.103E+00
   0.207  0.102E+00  0.102E+00
   0.227  0.101E+00  0.101E+00
   0.247  0.993E-01  0.993E-01
   0.267  0.981E-01  0.981E-01
   0.287  0.968E-01  0.968E-01
   0.307  0.956E-01  0.956E-01
   0.327  0.943E-01  0.943E-01
   0.347  0.930E-01  0.930E-01
   0.367  0.916E-01  0.916E-01
   0.387  0.902E-01  0.902E-01
   0.407  0.889E-01  0.889E-01
   0.427  0.876E-01  0.876E-01
   0.447  0.863E-01  0.863E-01
   0.467  0.851E-01  0.851E-01
   0.487  0.832E-01  0.832E-01
   0.507  0.821E-01  0.821E-01
   0.527  0.811E-01  0.811E-01
   0.547  0.803E-01  0.803E-01
   0.567  0.794E-01  0.794E-01
   0.587  0.786E-01  0.786E-01
   0.607  0.778E-01  0.778E-01
   0.627  0.769E-01  0.769E-01
   0.647  0.761E-01  0.761E-01
   0.667  0.752E-01  0.752E-01
   0.687  0.744E-01  0.744E-01
   0.707  0.735E-01  0.735E-01
   0.727  0.726E-01  0.726E-01
   0.747  0.717E-01  0.717E-01
   0.767  0.708E-01  0.708E-01
   0.787  0.699E-01  0.699E-01
   0.807  0.691E-01  0.691E-01
   0.827  0.682E-01  0.682E-01
   0.847  0.673E-01  0.673E-01
   0.867  0.664E-01  0.664E-01
   0.887  0.654E-01  0.654E-01
   0.907  0.642E-01  0.642E-01
   0.927  0.632E-01  0.632E-01
   0.947  0.624E-01  0.624E-01
   0.967  0.613E-01  0.613E-01
   0.987  0.604E-01  0.604E-01
   1.007  0.598E-01  0.598E-01
   1.027  0.592E-01  0.592E-01
   1.047  0.586E-01  0.586E-01
   1.067  0.580E-01  0.580E-01
   1.087  0.574E-01  0.574E-01
   1.107  0.568E-01  0.568E-01
   1.127  0.562E-01  0.562E-01
   1.147  0.556E-01  0.556E-01
   1.167  0.550E-01  0.550E-01
   1.187  0.544E-01  0.544E-01
   1.207  0.538E-01  0.538E-01
   1.227  0.532E-01  0.532E-01
   1.247  0.526E-01  0.526E-01
   1.267  0.519E-01  0.519E-01
   1.287  0.513E-01  0.513E-01
   1.307  0.506E-01  0.506E-01
   1.327  0.499E-01  0.499E-01
   1.347  0.491E-01  0.491E-01
   1.367  0.484E-01  0.484E-01
   1.387  0.477E-01  0.477E-01
   1.407  0.471E-01  0.471E-01
   1.427  0.464E-01  0.464E-01
   1.447  0.457E-01  0.457E-01
   1.467  0.447E-01  0.447E-01
   1.487  0.440E-01  0.440E-01
   1.507  0.435E-01  0.435E-01
   1.527  0.430E-01  0.430E-01
   1.547  0.426E-01  0.426E-01
   1.567  0.422E-01  0.422E-01
   1.587  0.417E-01  0.417E-01
   1.607  0.413E-01  0.413E-01
   1.627  0.409E-01  0.409E-01
   1.647  0.405E-01  0.405E-01
   1.667  0.400E-01  0.400E-01
   1.687  0.397E-01  0.397E-01
   1.707  0.401E-01  0.401E-01
   1.727  0.410E-01  0.410E-01
   1.747  0.409E-01  0.409E-01
   1.767  0.410E-01  0.410E-01
   1.787  0.414E-01  0.414E-01
   1.807  0.421E-01  0.421E-01
   1.827  0.427E-01  0.427E-01
   1.847  0.431E-01  0.431E-01
   1.867  0.436E-01  0.436E-01
   1.887  0.442E-01  0.442E-01
   1.907  0.452E-01  0.452E-01
   1.927  0.463E-01  0.463E-01
   1.947  0.477E-01  0.477E-01
   1.967  0.496E-01  0.496E-01
   1.987  0.504E-01  0.504E-01
   2.007  0.490E-01  0.490E-01
   2.027  0.492E-01  0.492E-01
   2.047  0.494E-01  0.494E-01
   2.067  0.498E-01  0.498E-01
   2.087  0.502E-01  0.502E-01
   2.107  0.505E-01  0.505E-01
   2.127  0.508E-01  0.508E-01
   2.147  0.511E-01  0.511E-01
   2.167  0.514E-01  0.514E-01
   2.187  0.515E-01  0.515E-01
   2.207  0.515E-01  0.515E-01
   2.227  0.515E-01  0.515E-01
   2.247  0.512E-01  0.512E-01
   2.267  0.513E-01  0.513E-01
   2.287  0.514E-01  0.514E-01
   2.307  0.515E-01  0.515E-01
   2.327  0.515E-01  0.515E-01
   2.347  0.515E-01  0.515E-01
   2.367  0.514E-01  0.514E-01
   2.387  0.514E-01  0.514E-01
   2.407  0.515E-01  0.515E-01
   2.427  0.518E-01  0.518E-01
   2.447  0.517E-01  0.517E-01
   2.467  0.515E-01  0.515E-01
   2.487  0.514E-01  0.514E-01
   2.507  0.512E-01  0.512E-01
   2.527  0.511E-01  0.511E-01
   2.547  0.509E-01  0.509E-01
   2.567  0.506E-01  0.506E-01
   2.587  0.501E-01  0.501E-01
   2.607  0.495E-01  0.495E-01
   2.627  0.492E-01  0.492E-01
   2.647  0.490E-01  0.490E-01
   2.667  0.488E-01  0.488E-01
   2.687  0.486E-01  0.486E-01
   2.707  0.485E-01  0.485E-01
   2.727  0.485E-01  0.485E-01
   2.747  0.485E-01  0.485E-01
   2.767  0.488E-01  0.488E-01
   2.787  0.484E-01  0.484E-01
   2.807  0.484E-01  0.484E-01
   2.827  0.484E-01  0.484E-01
   2.847  0.481E-01  0.481E-01
   2.867  0.480E-01  0.480E-01
   2.887  0.479E-01  0.479E-01
   2.907  0.476E-01  0.476E-01
   2.927  0.473E-01  0.473E-01
   2.947  0.470E-01  0.470E-01
   2.967  0.467E-01  0.467E-01
   2.987  0.464E-01  0.464E-01
   3.007  0.461E-01  0.461E-01
   3.027  0.456E-01  0.456E-01
   3.047  0.453E-01  0.453E-01
   3.067  0.453E-01  0.453E-01
   3.087  0.445E-01  0.445E-01
   3.107  0.442E-01  0.442E-01
   3.127  0.440E-01  0.440E-01
   3.147  0.435E-01  0.435E-01
   3.167  0.430E-01  0.430E-01
   3.187  0.426E-01  0.426E-01
   3.207  0.422E-01  0.422E-01
   3.227  0.418E-01  0.418E-01
   3.247  0.413E-01  0.413E-01
   3.267  0.409E-01  0.409E-01
   3.287  0.405E-01  0.405E-01
   3.307  0.402E-01  0.402E-01
   3.327  0.398E-01  0.398E-01
   3.347  0.394E-01  0.394E-01
   3.367  0.390E-01  0.390E-01
   3.387  0.387E-01  0.387E-01
   3.407  0.383E-01  0.383E-01
   3.427  0.379E-01  0.379E-01
   3.447  0.376E-01  0.376E-01
   3.467  0.372E-01  0.372E-01
   3.487  0.368E-01  0.368E-01
   3.507  0.364E-01  0.364E-01
   3.527  0.361E-01  0.361E-01
   3.547  0.357E-01  0.357E-01
   3.567  0.354E-01  0.354E-01
   3.587  0.350E-01  0.350E-01
   3.607  0.346E-01  0.346E-01
   3.627  0.342E-01  0.342E-01
   3.647  0.338E-01  0.338E-01
   3.667  0.334E-01  0.334E-01
   3.687  0.329E-01  0.329E-01
   3.707  0.325E-01  0.325E-01
   3.727  0.320E-01  0.320E-01
   3.747  0.315E-01  0.315E-01
   3.767  0.311E-01  0.311E-01
   3.787  0.306E-01  0.306E-01
   3.807  0.302E-01  0.302E-01
   3.827  0.297E-01  0.297E-01
   3.847  0.291E-01  0.291E-01
   3.867  0.285E-01  0.285E-01
   3.887  0.281E-01  0.281E-01
   3.907  0.277E-01  0.277E-01
   3.927  0.273E-01  0.273E-01
   3.947  0.269E-01  0.269E-01
   3.967  0.266E-01  0.266E-01
   3.987  0.263E-01  0.263E-01
   4.007  0.261E-01  0.261E-01
   4.027  0.259E-01  0.259E-01
   4.047  0.255E-01  0.255E-01
   4.067  0.251E-01  0.251E-01
   4.087  0.248E-01  0.248E-01
   4.107  0.244E-01  0.244E-01
   4.127  0.240E-01  0.240E-01
   4.147  0.236E-01  0.236E-01
   4.167  0.232E-01  0.232E-01
   4.187  0.227E-01  0.227E-01
   4.207  0.222E-01  0.222E-01
   4.227  0.218E-01  0.218E-01
   4.247  0.213E-01  0.213E-01
   4.267  0.208E-01  0.208E-01
   4.287  0.202E-01  0.202E-01
   4.307  0.197E-01  0.197E-01
   4.327  0.192E-01  0.192E-01
   4.347  0.187E-01  0.187E-01
   4.367  0.182E-01  0.182E-01
   4.387  0.177E-01  0.177E-01
   4.407  0.172E-01  0.172E-01
   4.427  0.167E-01  0.167E-01
   4.447  0.163E-01  0.163E-01
   4.467  0.160E-01  0.160E-01
   4.487  0.156E-01  0.156E-01
   4.507  0.151E-01  0.151E-01
   4.527  0.147E-01  0.147E-01
   4.547  0.144E-01  0.144E-01
   4.567  0.142E-01  0.142E-01
   4.587  0.139E-01  0.139E-01
   4.607  0.135E-01  0.135E-01
   4.627  0.132E-01  0.132E-01
   4.647  0.128E-01  0.128E-01
   4.667  0.124E-01  0.124E-01
   4.687  0.121E-01  0.121E-01
   4.707  0.118E-01  0.118E-01
   4.727  0.115E-01  0.115E-01
   4.747  0.112E-01  0.112E-01
   4.767  0.111E-01  0.111E-01
   4.787  0.108E-01  0.108E-01
   4.807  0.106E-01  0.106E-01
   4.827  0.104E-01  0.104E-01
   4.847  0.102E-01  0.102E-01
   4.867  0.991E-02  0.991E-02
   4.887  0.965E-02  0.965E-02
   4.907  0.939E-02  0.939E-02
   4.927  0.916E-02  0.916E-02
   4.947  0.889E-02  0.889E-02
   4.967  0.863E-02  0.863E-02
   4.987  0.837E-02  0.837E-02
   5.007  0.811E-02  0.811E-02
   5.027  0.785E-02  0.785E-02
   5.047  0.755E-02  0.755E-02
   5.067  0.720E-02  0.720E-02
   5.087  0.689E-02  0.689E-02
   5.107  0.661E-02  0.661E-02
   5.127  0.635E-02  0.635E-02
   5.147  0.610E-02  0.610E-02
   5.167  0.585E-02  0.585E-02
   5.187  0.561E-02  0.561E-02
   5.207  0.537E-02  0.537E-02
   5.227  0.515E-02  0.515E-02
   5.247  0.494E-02  0.494E-02
   5.267  0.472E-02  0.472E-02
   5.287  0.451E-02  0.451E-02
   5.307  0.430E-02  0.430E-02
   5.327  0.410E-02  0.410E-02
   5.347  0.391E-02  0.391E-02
   5.367  0.372E-02  0.372E-02
   5.387  0.353E-02  0.353E-02
   5.407  0.334E-02  0.334E-02
   5.427  0.315E-02  0.315E-02
   5.447  0.298E-02  0.298E-02
   5.467  0.282E-02  0.282E-02
   5.487  0.266E-02  0.266E-02
   5.507  0.250E-02  0.250E-02
   5.527  0.234E-02  0.234E-02
   5.547  0.219E-02  0.219E-02
   5.567  0.205E-02  0.205E-02
   5.587  0.191E-02  0.191E-02
   5.607  0.177E-02  0.177E-02
   5.627  0.165E-02  0.165E-02
   5.647  0.157E-02  0.157E-02
   5.667  0.146E-02  0.146E-02
   5.687  0.133E-02  0.133E-02
   5.707  0.119E-02  0.119E-02
   5.727  0.106E-02  0.106E-02
   5.747  0.944E-03  0.944E-03
   5.767  0.833E-03  0.833E-03
   5.787  0.706E-03  0.706E-03
   5.807  0.564E-03  0.564E-03
   5.827  0.419E-03  0.419E-03
   5.847  0.287E-03  0.287E-03
   5.867  0.179E-03  0.179E-03
   5.887  0.959E-04  0.959E-04
   5.907  0.383E-04  0.383E-04
   5.927  0.710E-05  0.710E-05
   5.947  0.525E-06  0.525E-06
   5.967  0.606E-07  0.606E-07
   5.987  0.000E+00  0.000E+00
   6.007  0.000E+00  0.000E+00
   6.027  0.000E+00  0.000E+00
   6.047  0.000E+00  0.000E+00
   6.067  0.000E+00  0.000E+00
   6.087  0.000E+00  0.000E+00
   6.107  0.000E+00  0.000E+00
   6.127  0.000E+00  0.000E+00
   6.147  0.000E+00  0.000E+00
   6.167  0.000E+00  0.000E+00
   6.187  0.000E+00  0.000E+00
   6.207  0.000E+00  0.000E+00
   6.227  0.000E+00  0.000E+00
   6.247  0.000E+00  0.000E+00
   6.267  0.000E+00  0.000E+00
   6.287  0.000E+00  0.000E+00
   6.307  0.000E+00  0.000E+00
   6.327  0.000E+00  0.000E+00
   6.347  0.000E+00  0.000E+00
   6.367  0.000E+00  0.000E+00
   6.387  0.000E+00  0.000E+00
   6.407  0.000E+00  0.000E+00
   6.427  0.000E+00  0.000E+00
   6.447  0.000E+00  0.000E+00
   6.467  0.000E+00  0.000E+00
   6.487  0.000E+00  0.000E+00
   6.507  0.000E+00  0.000E+00
   6.527  0.000E+00  0.000E+00
   6.547  0.000E+00  0.000E+00
   6.567  0.000E+00  0.000E+00
   6.587  0.000E+00  0.000E+00
   6.607  0.232E-04  0.232E-04
   6.627  0.200E-02  0.200E-02
   6.647  0.492E-02  0.492E-02
   6.667  0.834E-02  0.834E-02
   6.687  0.123E-01  0.123E-01
   6.707  0.166E-01  0.166E-01
   6.727  0.212E-01  0.212E-01
   6.747  0.252E-01  0.252E-01
   6.767  0.276E-01  0.276E-01
   6.787  0.300E-01  0.300E-01
   6.807  0.325E-01  0.325E-01
   6.827  0.350E-01  0.350E-01
   6.847  0.373E-01  0.373E-01
   6.867  0.399E-01  0.399E-01
   6.887  0.426E-01  0.426E-01
   6.907  0.450E-01  0.450E-01
   6.927  0.475E-01  0.475E-01
   6.947  0.501E-01  0.501E-01
   6.967  0.526E-01  0.526E-01
   6.987  0.547E-01  0.547E-01
   7.007  0.559E-01  0.559E-01
   7.027  0.562E-01  0.562E-01
   7.047  0.573E-01  0.573E-01
   7.067  0.585E-01  0.585E-01
   7.087  0.596E-01  0.596E-01
   7.107  0.608E-01  0.608E-01
   7.127  0.617E-01  0.617E-01
   7.147  0.626E-01  0.626E-01
   7.167  0.636E-01  0.636E-01
   7.187  0.647E-01  0.647E-01
   7.207  0.658E-01  0.658E-01
   7.227  0.668E-01  0.668E-01
   7.247  0.679E-01  0.679E-01
   7.267  0.690E-01  0.690E-01
   7.287  0.702E-01  0.702E-01
   7.307  0.713E-01  0.713E-01
   7.327  0.724E-01  0.724E-01
   7.347  0.735E-01  0.735E-01
   7.367  0.746E-01  0.746E-01
   7.387  0.758E-01  0.758E-01
   7.407  0.770E-01  0.770E-01
   7.427  0.781E-01  0.781E-01
   7.447  0.792E-01  0.792E-01
   7.467  0.808E-01  0.808E-01
   7.487  0.836E-01  0.836E-01
   7.507  0.869E-01  0.869E-01
   7.527  0.906E-01  0.906E-01
   7.547  0.949E-01  0.949E-01
   7.567  0.996E-01  0.996E-01
   7.587  0.104E+00  0.104E+00
   7.607  0.108E+00  0.108E+00
   7.627  0.113E+00  0.113E+00
   7.647  0.117E+00  0.117E+00
   7.667  0.122E+00  0.122E+00
   7.687  0.125E+00  0.125E+00
   7.707  0.126E+00  0.126E+00
   7.727  0.128E+00  0.128E+00
   7.747  0.131E+00  0.131E+00
   7.767  0.134E+00  0.134E+00
   7.787  0.137E+00  0.137E+00
   7.807  0.140E+00  0.140E+00
   7.827  0.143E+00  0.143E+00
   7.847  0.146E+00  0.146E+00
   7.867  0.149E+00  0.149E+00
   7.887  0.153E+00  0.153E+00
   7.907  0.156E+00  0.156E+00
   7.927  0.159E+00  0.159E+00
   7.947  0.163E+00  0.163E+00
   7.967  0.166E+00  0.166E+00
   7.987  0.170E+00  0.170E+00
   8.007  0.173E+00  0.173E+00
   8.027  0.177E+00  0.177E+00
   8.047  0.183E+00  0.183E+00
   8.067  0.189E+00  0.189E+00
   8.087  0.198E+00  0.198E+00
   8.107  0.221E+00  0.221E+00
   8.127  0.234E+00  0.234E+00
   8.147  0.243E+00  0.243E+00
   8.167  0.247E+00  0.247E+00
   8.187  0.250E+00  0.250E+00
   8.207  0.252E+00  0.252E+00
   8.227  0.251E+00  0.251E+00
   8.247  0.250E+00  0.250E+00
   8.267  0.247E+00  0.247E+00
   8.287  0.244E+00  0.244E+00
   8.307  0.241E+00  0.241E+00
   8.327  0.236E+00  0.236E+00
   8.347  0.232E+00  0.232E+00
   8.367  0.225E+00  0.225E+00
   8.387  0.218E+00  0.218E+00
   8.407  0.211E+00  0.211E+00
   8.427  0.205E+00  0.205E+00
   8.447  0.201E+00  0.201E+00
   8.467  0.200E+00  0.200E+00
   8.487  0.196E+00  0.196E+00
   8.507  0.190E+00  0.190E+00
   8.527  0.184E+00  0.184E+00
   8.547  0.178E+00  0.178E+00
   8.567  0.173E+00  0.173E+00
   8.587  0.167E+00  0.167E+00
   8.607  0.163E+00  0.163E+00
   8.627  0.160E+00  0.160E+00
   8.647  0.157E+00  0.157E+00
   8.667  0.155E+00  0.155E+00
   8.687  0.155E+00  0.155E+00
   8.707  0.149E+00  0.149E+00
   8.727  0.139E+00  0.139E+00
   8.747  0.128E+00  0.128E+00
   8.767  0.124E+00  0.124E+00
   8.787  0.121E+00  0.121E+00
   8.807  0.119E+00  0.119E+00
   8.827  0.118E+00  0.118E+00
   8.847  0.109E+00  0.109E+00
   8.867  0.106E+00  0.106E+00
   8.887  0.105E+00  0.105E+00
   8.907  0.103E+00  0.103E+00
   8.927  0.102E+00  0.102E+00
   8.947  0.101E+00  0.101E+00
   8.967  0.979E-01  0.979E-01
   8.987  0.942E-01  0.942E-01
   9.007  0.910E-01  0.910E-01
   9.027  0.888E-01  0.888E-01
   9.047  0.832E-01  0.832E-01
   9.067  0.787E-01  0.787E-01
   9.087  0.753E-01  0.753E-01
   9.107  0.734E-01  0.734E-01
   9.127  0.707E-01  0.707E-01
   9.147  0.677E-01  0.677E-01
   9.167  0.684E-01  0.684E-01
   9.187  0.710E-01  0.710E-01
   9.207  0.716E-01  0.716E-01
   9.227  0.737E-01  0.737E-01
   9.247  0.820E-01  0.820E-01
   9.267  0.913E-01  0.913E-01
   9.287  0.996E-01  0.996E-01
   9.307  0.105E+00  0.105E+00
   9.327  0.102E+00  0.102E+00
   9.347  0.100E+00  0.100E+00
   9.367  0.104E+00  0.104E+00
   9.387  0.104E+00  0.104E+00
   9.407  0.107E+00  0.107E+00
   9.427  0.111E+00  0.111E+00
   9.447  0.115E+00  0.115E+00
   9.467  0.117E+00  0.117E+00
   9.487  0.119E+00  0.119E+00
   9.507  0.120E+00  0.120E+00
   9.527  0.120E+00  0.120E+00
   9.547  0.118E+00  0.118E+00
   9.567  0.117E+00  0.117E+00
   9.587  0.121E+00  0.121E+00
   9.607  0.126E+00  0.126E+00
   9.627  0.137E+00  0.137E+00
   9.647  0.135E+00  0.135E+00
   9.667  0.136E+00  0.136E+00
   9.687  0.137E+00  0.137E+00
   9.707  0.135E+00  0.135E+00
   9.727  0.133E+00  0.133E+00
   9.747  0.128E+00  0.128E+00
   9.767  0.121E+00  0.121E+00
   9.787  0.115E+00  0.115E+00
   9.807  0.110E+00  0.110E+00
   9.827  0.103E+00  0.103E+00
   9.847  0.965E-01  0.965E-01
   9.867  0.900E-01  0.900E-01
   9.887  0.853E-01  0.853E-01
   9.907  0.812E-01  0.812E-01
   9.927  0.778E-01  0.778E-01
   9.947  0.785E-01  0.785E-01
   9.967  0.783E-01  0.783E-01
   9.987  0.756E-01  0.756E-01
  10.007  0.733E-01  0.733E-01
  10.027  0.712E-01  0.712E-01
  10.047  0.689E-01  0.689E-01
  10.067  0.656E-01  0.656E-01
  10.087  0.609E-01  0.609E-01
  10.107  0.564E-01  0.564E-01
  10.127  0.552E-01  0.552E-01
  10.147  0.547E-01  0.547E-01
  10.167  0.551E-01  0.551E-01
  10.187  0.556E-01  0.556E-01
  10.207  0.561E-01  0.561E-01
  10.227  0.564E-01  0.564E-01
  10.247  0.566E-01  0.566E-01
  10.267  0.568E-01  0.568E-01
  10.287  0.594E-01  0.594E-01
  10.307  0.607E-01  0.607E-01
  10.327  0.617E-01  0.617E-01
  10.347  0.608E-01  0.608E-01
  10.367  0.615E-01  0.615E-01
  10.387  0.631E-01  0.631E-01
  10.407  0.657E-01  0.657E-01
  10.427  0.690E-01  0.690E-01
  10.447  0.727E-01  0.727E-01
  10.467  0.770E-01  0.770E-01
  10.487  0.806E-01  0.806E-01
  10.507  0.813E-01  0.813E-01
  10.527  0.796E-01  0.796E-01
  10.547  0.779E-01  0.779E-01
  10.567  0.760E-01  0.760E-01
  10.587  0.744E-01  0.744E-01
  10.607  0.729E-01  0.729E-01
  10.627  0.732E-01  0.732E-01
  10.647  0.736E-01  0.736E-01
  10.667  0.742E-01  0.742E-01
  10.687  0.746E-01  0.746E-01
  10.707  0.758E-01  0.758E-01
  10.727  0.783E-01  0.783E-01
  10.747  0.816E-01  0.816E-01
  10.767  0.816E-01  0.816E-01
  10.787  0.817E-01  0.817E-01
  10.807  0.825E-01  0.825E-01
  10.827  0.846E-01  0.846E-01
  10.847  0.878E-01  0.878E-01
  10.867  0.906E-01  0.906E-01
  10.887  0.928E-01  0.928E-01
  10.907  0.943E-01  0.943E-01
  10.927  0.906E-01  0.906E-01
  10.947  0.823E-01  0.823E-01
  10.967  0.799E-01  0.799E-01
  10.987  0.771E-01  0.771E-01
  11.007  0.766E-01  0.766E-01
  11.027  0.758E-01  0.758E-01
  11.047  0.747E-01  0.747E-01
  11.067  0.740E-01  0.740E-01
  11.087  0.735E-01  0.735E-01
  11.107  0.733E-01  0.733E-01
  11.127  0.754E-01  0.754E-01
  11.147  0.764E-01  0.764E-01
  11.167  0.749E-01  0.749E-01
  11.187  0.768E-01  0.768E-01
  11.207  0.782E-01  0.782E-01
  11.227  0.804E-01  0.804E-01
  11.247  0.796E-01  0.796E-01
  11.267  0.792E-01  0.792E-01
  11.287  0.788E-01  0.788E-01
  11.307  0.783E-01  0.783E-01
  11.327  0.776E-01  0.776E-01
  11.347  0.771E-01  0.771E-01
  11.367  0.768E-01  0.768E-01
  11.387  0.770E-01  0.770E-01
  11.407  0.781E-01  0.781E-01
  11.427  0.801E-01  0.801E-01
  11.447  0.794E-01  0.794E-01
  11.467  0.779E-01  0.779E-01
  11.487  0.798E-01  0.798E-01
  11.507  0.803E-01  0.803E-01
  11.527  0.785E-01  0.785E-01
  11.547  0.784E-01  0.784E-01
  11.567  0.783E-01  0.783E-01
  11.587  0.774E-01  0.774E-01
  11.607  0.760E-01  0.760E-01
  11.627  0.739E-01  0.739E-01
  11.647  0.737E-01  0.737E-01
  11.667  0.743E-01  0.743E-01
  11.687  0.742E-01  0.742E-01
  11.707  0.742E-01  0.742E-01
  11.727  0.714E-01  0.714E-01
  11.747  0.691E-01  0.691E-01
  11.767  0.674E-01  0.674E-01
  11.787  0.658E-01  0.658E-01
  11.807  0.644E-01  0.644E-01
  11.827  0.633E-01  0.633E-01
  11.847  0.621E-01  0.621E-01
  11.867  0.609E-01  0.609E-01
  11.887  0.597E-01  0.597E-01
  11.907  0.585E-01  0.585E-01
  11.927  0.580E-01  0.580E-01
  11.947  0.574E-01  0.574E-01
  11.967  0.562E-01  0.562E-01
  11.987  0.544E-01  0.544E-01
  12.007  0.528E-01  0.528E-01
  12.027  0.522E-01  0.522E-01
  12.047  0.516E-01  0.516E-01
  12.067  0.511E-01  0.511E-01
  12.087  0.506E-01  0.506E-01
  12.107  0.502E-01  0.502E-01
  12.127  0.499E-01  0.499E-01
  12.147  0.497E-01  0.497E-01
  12.167  0.498E-01  0.498E-01
  12.187  0.497E-01  0.497E-01
  12.207  0.490E-01  0.490E-01
  12.227  0.478E-01  0.478E-01
  12.247  0.463E-01  0.463E-01
  12.267  0.446E-01  0.446E-01
  12.287  0.433E-01  0.433E-01
  12.307  0.426E-01  0.426E-01
  12.327  0.424E-01  0.424E-01
  12.347  0.425E-01  0.425E-01
  12.367  0.426E-01  0.426E-01
  12.387  0.428E-01  0.428E-01
  12.407  0.433E-01  0.433E-01
  12.427  0.447E-01  0.447E-01
  12.447  0.475E-01  0.475E-01
  12.467  0.505E-01  0.505E-01
  12.487  0.535E-01  0.535E-01
  12.507  0.561E-01  0.561E-01
  12.527  0.572E-01  0.572E-01
  12.547  0.570E-01  0.570E-01
  12.567  0.568E-01  0.568E-01
  12.587  0.572E-01  0.572E-01
  12.607  0.571E-01  0.571E-01
  12.627  0.568E-01  0.568E-01
  12.647  0.568E-01  0.568E-01
  12.667  0.574E-01  0.574E-01
  12.687  0.581E-01  0.581E-01
  12.707  0.577E-01  0.577E-01
  12.727  0.565E-01  0.565E-01
  12.747  0.546E-01  0.546E-01
  12.767  0.519E-01  0.519E-01
  12.787  0.427E-01  0.427E-01
  12.807  0.386E-01  0.386E-01
  12.827  0.373E-01  0.373E-01
  12.847  0.362E-01  0.362E-01
  12.867  0.352E-01  0.352E-01
  12.887  0.343E-01  0.343E-01
  12.907  0.335E-01  0.335E-01
  12.927  0.328E-01  0.328E-01
  12.947  0.322E-01  0.322E-01
  12.967  0.316E-01  0.316E-01
  12.987  0.310E-01  0.310E-01
  13.007  0.304E-01  0.304E-01
  13.027  0.299E-01  0.299E-01
  13.047  0.294E-01  0.294E-01
  13.067  0.290E-01  0.290E-01
  13.087  0.285E-01  0.285E-01
  13.107  0.281E-01  0.281E-01
  13.127  0.277E-01  0.277E-01
  13.147  0.273E-01  0.273E-01
  13.167  0.270E-01  0.270E-01
  13.187  0.267E-01  0.267E-01
  13.207  0.264E-01  0.264E-01
  13.227  0.261E-01  0.261E-01
  13.247  0.258E-01  0.258E-01
  13.267  0.255E-01  0.255E-01
  13.287  0.251E-01  0.251E-01
  13.307  0.248E-01  0.248E-01
  13.327  0.244E-01  0.244E-01
  13.347  0.241E-01  0.241E-01
  13.367  0.236E-01  0.236E-01
  13.387  0.232E-01  0.232E-01
  13.407  0.227E-01  0.227E-01
  13.427  0.223E-01  0.223E-01
  13.447  0.219E-01  0.219E-01
  13.467  0.216E-01  0.216E-01
  13.487  0.209E-01  0.209E-01
  13.507  0.200E-01  0.200E-01
  13.527  0.197E-01  0.197E-01
  13.547  0.194E-01  0.194E-01
  13.567  0.193E-01  0.193E-01
  13.587  0.192E-01  0.192E-01
  13.607  0.192E-01  0.192E-01
  13.627  0.193E-01  0.193E-01
  13.647  0.194E-01  0.194E-01
  13.667  0.197E-01  0.197E-01
  13.687  0.198E-01  0.198E-01
  13.707  0.202E-01  0.202E-01
  13.727  0.217E-01  0.217E-01
  13.747  0.230E-01  0.230E-01
  13.767  0.255E-01  0.255E-01
  13.787  0.259E-01  0.259E-01
  13.807  0.242E-01  0.242E-01
  13.827  0.192E-01  0.192E-01
  13.847  0.181E-01  0.181E-01
  13.867  0.171E-01  0.171E-01
  13.887  0.162E-01  0.162E-01
  13.907  0.153E-01  0.153E-01
  13.927  0.144E-01  0.144E-01
  13.947  0.134E-01  0.134E-01
  13.967  0.121E-01  0.121E-01
  13.987  0.106E-01  0.106E-01
  14.007  0.932E-02  0.932E-02
  14.027  0.823E-02  0.823E-02
  14.047  0.735E-02  0.735E-02
  14.067  0.666E-02  0.666E-02
  14.087  0.608E-02  0.608E-02
  14.107  0.561E-02  0.561E-02
  14.127  0.528E-02  0.528E-02
  14.147  0.512E-02  0.512E-02
  14.167  0.501E-02  0.501E-02
  14.187  0.490E-02  0.490E-02
  14.207  0.482E-02  0.482E-02
  14.227  0.475E-02  0.475E-02
  14.247  0.467E-02  0.467E-02
  14.267  0.460E-02  0.460E-02
  14.287  0.452E-02  0.452E-02
  14.307  0.444E-02  0.444E-02
  14.327  0.436E-02  0.436E-02
  14.347  0.427E-02  0.427E-02
  14.367  0.419E-02  0.419E-02
  14.387  0.410E-02  0.410E-02
  14.407  0.402E-02  0.402E-02
  14.427  0.394E-02  0.394E-02
  14.447  0.387E-02  0.387E-02
  14.467  0.379E-02  0.379E-02
  14.487  0.371E-02  0.371E-02
  14.507  0.363E-02  0.363E-02
  14.527  0.355E-02  0.355E-02
  14.547  0.354E-02  0.354E-02
  14.567  0.355E-02  0.355E-02
  14.587  0.341E-02  0.341E-02
  14.607  0.314E-02  0.314E-02
  14.627  0.275E-02  0.275E-02
  14.647  0.235E-02  0.235E-02
  14.667  0.239E-02  0.239E-02
  14.687  0.239E-02  0.239E-02
  14.707  0.235E-02  0.235E-02
  14.727  0.226E-02  0.226E-02
  14.747  0.217E-02  0.217E-02
  14.767  0.208E-02  0.208E-02
  14.787  0.200E-02  0.200E-02
  14.807  0.192E-02  0.192E-02
  14.827  0.184E-02  0.184E-02
  14.847  0.176E-02  0.176E-02
  14.867  0.169E-02  0.169E-02
  14.887  0.161E-02  0.161E-02
  14.907  0.154E-02  0.154E-02
  14.927  0.147E-02  0.147E-02
  14.947  0.141E-02  0.141E-02
  14.967  0.134E-02  0.134E-02
  14.987  0.128E-02  0.128E-02
  15.007  0.122E-02  0.122E-02
  15.027  0.116E-02  0.116E-02
  15.047  0.111E-02  0.111E-02
  15.067  0.105E-02  0.105E-02
  15.087  0.100E-02  0.100E-02
  15.107  0.958E-03  0.958E-03
  15.127  0.914E-03  0.914E-03
  15.147  0.874E-03  0.874E-03
  15.167  0.837E-03  0.837E-03
  15.187  0.801E-03  0.801E-03
  15.207  0.768E-03  0.768E-03
  15.227  0.737E-03  0.737E-03
  15.247  0.706E-03  0.706E-03
  15.267  0.677E-03  0.677E-03
  15.287  0.644E-03  0.644E-03
  15.307  0.641E-03  0.641E-03
  15.327  0.639E-03  0.639E-03
  15.347  0.637E-03  0.637E-03
  15.367  0.634E-03  0.634E-03
  15.387  0.631E-03  0.631E-03
  15.407  0.625E-03  0.625E-03
  15.427  0.616E-03  0.616E-03
  15.447  0.603E-03  0.603E-03
  15.467  0.589E-03  0.589E-03
  15.487  0.600E-03  0.600E-03
  15.507  0.550E-03  0.550E-03
  15.527  0.400E-03  0.400E-03
  15.547  0.216E-03  0.216E-03
  15.567  0.151E-03  0.151E-03
  15.587  0.126E-03  0.126E-03
  15.607  0.104E-03  0.104E-03
  15.627  0.848E-04  0.848E-04
  15.647  0.681E-04  0.681E-04
  15.667  0.537E-04  0.537E-04
  15.687  0.415E-04  0.415E-04
  15.707  0.313E-04  0.313E-04
  15.727  0.229E-04  0.229E-04
  15.747  0.162E-04  0.162E-04
  15.767  0.110E-04  0.110E-04
  15.787  0.698E-05  0.698E-05
  15.807  0.410E-05  0.410E-05
  15.827  0.215E-05  0.215E-05
  15.847  0.940E-06  0.940E-06
  15.867  0.300E-06  0.300E-06
  15.887  0.463E-07  0.463E-07
  15.907  0.116E-09  0.116E-09
  15.927  0.000E+00  0.000E+00
